# 2theta(deg)    Intensity    Error
0.9797269 121.3815155 4.0281186
0.9970531 118.0964890 1.9721986
1.0143793 115.5119324 1.5241295
1.0317055 113.5366440 1.2940751
1.0490317 115.1273651 1.0548388
1.0663578 116.4403839 0.9290162
1.0836840 115.8174591 0.8272183
1.1010102 114.8674240 0.7691808
1.1183364 113.9851990 0.7346200
1.1356626 112.6330414 0.6908187
1.1529888 111.8138962 0.6653619
1.1703150 110.3085632 0.6527054
1.1876411 108.5446548 0.6241175
1.2049673 107.4908676 0.6047974
1.2222935 106.4494781 0.5954878
1.2396197 105.2656097 0.5723788
1.2569459 104.7850418 0.5566310
1.2742721 104.1945190 0.5467657
1.2915983 103.4964447 0.5250617
1.3089245 103.1114883 0.5074582
1.3262506 102.9206161 0.5019261
1.3435768 102.7568054 0.4898234
1.3609030 102.1355896 0.4843433
1.3782292 101.0182190 0.4852248
1.3955554 100.1485138 0.4736320
1.4128816 99.2058411 0.4674432
1.4302078 98.6411209 0.4705750
1.4475340 98.3078079 0.4608763
1.4648601 97.8091049 0.4559332
1.4821863 96.8070526 0.4571213
1.4995125 95.9853897 0.4473211
1.5168387 95.4724121 0.4425471
1.5341649 94.9005890 0.4443585
1.5514911 95.1407242 0.4384160
1.5688173 94.6607056 0.4316886
1.5861434 93.7342911 0.4338347
1.6034696 93.1131134 0.4250744
1.6207958 92.5449600 0.4184374
1.6381220 92.3928833 0.4214227
1.6554482 92.7786331 0.4157777
1.6727744 92.8012085 0.4105733
1.6901006 92.1436310 0.4128141
1.7074268 91.2403488 0.4052963
1.7247529 90.6586990 0.3990621
1.7420791 90.3841324 0.4019348
1.7594053 90.2411041 0.3962227
1.7767315 90.0765610 0.3911473
1.7940577 89.9554901 0.3944826
1.8113839 89.7687607 0.3894181
1.8287101 89.4597092 0.3838633
1.8460362 89.2828217 0.3873389
1.8633624 89.0150909 0.3824729
1.8806886 88.8259201 0.3771212
1.8980148 88.7338409 0.3804981
1.9153410 88.4313202 0.3756754
1.9326672 88.0682144 0.3702368
1.9499934 87.4949875 0.3713354
1.9673196 87.1822433 0.3667928
1.9846457 86.9396820 0.3613725
2.0019719 86.8720016 0.3641467
2.0192981 86.7802277 0.3607687
2.0366243 86.7068481 0.3553595
2.0539505 86.5189896 0.3577777
2.0712767 86.4425049 0.3549983
2.0886029 86.1911697 0.3491081
2.1059291 86.0225677 0.3519977
2.1232552 85.7178192 0.3490840
2.1405814 85.4740067 0.3440499
2.1579076 85.3951721 0.3469828
2.1752338 85.5519714 0.3450399
2.1925600 85.6981888 0.3402204
2.2098862 85.5897827 0.3427491
2.2272124 85.6202393 0.3410212
2.2445385 85.1652603 0.3345658
2.2618647 84.5970230 0.3357420
2.2791909 84.5183716 0.3340975
2.2965171 84.5473251 0.3290222
2.3138433 84.6735611 0.3314096
2.3311695 84.5620193 0.3299855
2.3484957 84.1677170 0.3241275
2.3658219 84.1289444 0.3260520
2.3831480 84.2400436 0.3251653
2.4004742 84.2978287 0.3202612
2.4178004 84.3216934 0.3220353
2.4351266 84.0833054 0.3216397
2.4524528 83.4812927 0.3153419
2.4697790 83.0872421 0.3164612
2.4871052 83.2788162 0.3166205
2.5044314 83.3713150 0.3123852
2.5217575 82.8563995 0.3124303
2.5390837 82.7148590 0.3120965
2.5564099 82.7987366 0.3074102
2.5737361 82.8707962 0.3089994
2.5910623 82.7885590 0.3086717
2.6083885 82.8989639 0.3043746
2.6257147 82.9531021 0.3051929
2.6430408 82.8736267 0.3054748
2.6603670 82.4341660 0.2994671
2.6776932 82.4836502 0.3006737
2.6950194 82.5400162 0.3008564
2.7123456 82.7347031 0.2967537
2.7296718 82.9211655 0.2981808
2.7469980 82.6761322 0.2981502
2.7643242 82.2575226 0.2929941
2.7816503 82.1709671 0.2935080
2.7989765 82.3908768 0.2946354
2.8163027 82.5114899 0.2910201
2.8336289 82.4704437 0.2910946
2.8509551 82.2726288 0.2914091
2.8682813 82.0477753 0.2872514
2.8856075 81.6689987 0.2867532
2.9029336 81.5163803 0.2875107
2.9202598 81.6041183 0.2838660
2.9375860 81.4111099 0.2832778
2.9549122 81.3168182 0.2840474
2.9722384 81.2355118 0.2797030
2.9895646 81.2212219 0.2795243
3.0068908 81.0862732 0.2804361
3.0242170 80.9824829 0.2767672
3.0415431 81.0150146 0.2765815
3.0588693 81.1118546 0.2776904
3.0761955 81.4465485 0.2749891
3.0935217 81.5618439 0.2746181
3.1108479 81.5466614 0.2757850
3.1281741 81.5047836 0.2727535
3.1455003 81.3986359 0.2720006
3.1628265 81.3183746 0.2733940
3.1801526 81.0584259 0.2701075
3.1974788 80.7782669 0.2686897
3.2148050 80.7025070 0.2701695
3.2321312 80.5236588 0.2669649
3.2494574 80.6088943 0.2659315
3.2667836 80.8886185 0.2678042
3.2841098 81.0055008 0.2649737
3.3014359 81.0475540 0.2639510
3.3187621 80.9620438 0.2653473
3.3360883 80.9053955 0.2627544
3.3534145 80.7969971 0.2611600
3.3707407 80.8245621 0.2626035
3.3880669 81.0403976 0.2605008
3.4053931 81.1564484 0.2592033
3.4227193 81.1250687 0.2607641
3.4400454 81.1269531 0.2586921
3.4573716 81.2275620 0.2576185
3.4746978 81.2042313 0.2593565
3.4920240 81.2712021 0.2573945
3.5093502 81.3544388 0.2556967
3.5266764 81.3517838 0.2572711
3.5440026 81.4104919 0.2556678
3.5613288 81.4389038 0.2537578
3.5786549 81.4157867 0.2554397
3.5959811 81.4504929 0.2538481
3.6133073 81.4814377 0.2518140
3.6306335 81.6741486 0.2538676
3.6479597 81.8683777 0.2525575
3.6652859 81.8647385 0.2501978
3.6826121 81.5756760 0.2513488
3.6999382 81.4936829 0.2500711
3.7172644 81.6579895 0.2477249
3.7345906 81.8017654 0.2495665
3.7519168 81.8759842 0.2491159
3.7692430 81.4789810 0.2457841
3.7865692 81.2502441 0.2470728
3.8038954 81.3470535 0.2464402
3.8212216 81.5702667 0.2443440
3.8385477 81.5762558 0.2455807
3.8558739 81.6793900 0.2454859
3.8732001 81.6504211 0.2428252
3.8905263 81.6875000 0.2442579
3.9078525 82.0231705 0.2446072
3.9251787 82.1217117 0.2419024
3.9425049 82.0956345 0.2428021
3.9598310 82.2481918 0.2427959
3.9771572 82.5857391 0.2403920
3.9944834 82.8683472 0.2421116
4.0118096 82.7749710 0.2417315
4.0291358 83.0169449 0.2394928
4.0464620 83.1030884 0.2406269
4.0637882 82.8753586 0.2404077
4.0811144 82.5370789 0.2369701
4.0984405 82.3458710 0.2373432
4.1157667 82.3945999 0.2378933
4.1330929 82.4998093 0.2354943
4.1504191 82.7448502 0.2365170
4.1677453 82.9111786 0.2373755
4.1850715 83.0640411 0.2349967
4.2023977 83.5371094 0.2361618
4.2197239 83.8169250 0.2372682
4.2370500 83.8494720 0.2347655
4.2543762 83.8119049 0.2347069
4.2717024 83.7509003 0.2356801
4.2890286 83.6757889 0.2330439
4.3063548 83.5094910 0.2327945
4.3236810 83.4119339 0.2334466
4.3410072 83.7611084 0.2315754
4.3583333 84.1382675 0.2318148
4.3756595 84.0890274 0.2326682
4.3929857 84.1213837 0.2304129
4.4103119 84.2206345 0.2301236
4.4276381 84.2734299 0.2313689
4.4449643 84.6688766 0.2300515
4.4622905 85.0434418 0.2299647
4.4796167 85.1701126 0.2312825
4.4969428 85.1938553 0.2294632
4.5142690 85.2056580 0.2285643
4.5315952 85.0835037 0.2299051
4.5489214 84.7973709 0.2277828
4.5662476 84.6477127 0.2265260
4.5835738 84.7489777 0.2283229
4.6009000 84.8839722 0.2270173
4.6182262 85.2341690 0.2261694
4.6355523 85.6533813 0.2281397
4.6528785 85.8791656 0.2270952
4.6702047 85.7130737 0.2252223
4.6875309 85.5091629 0.2265398
4.7048571 85.5754700 0.2255186
4.7221833 85.6309204 0.2237054
4.7395095 85.6656876 0.2253329
4.7568356 85.8557892 0.2247230
4.7741618 85.8362350 0.2225671
4.7914880 85.9393997 0.2240446
4.8088142 86.2373047 0.2239396
4.8261404 86.4846344 0.2222333
4.8434666 86.5603561 0.2236703
4.8607928 86.5579376 0.2234447
4.8781190 86.6195068 0.2212935
4.8954451 86.9530258 0.2228498
4.9127713 87.2203445 0.2232558
4.9300975 87.0912933 0.2206451
4.9474237 86.9195709 0.2213530
4.9647499 86.9755554 0.2216787
4.9820761 87.1885529 0.2198647
4.9994023 87.4740448 0.2209460
5.0167284 87.6870880 0.2215220
5.0340546 87.8668747 0.2193009
5.0513808 88.0439835 0.2199698
5.0687070 88.0071716 0.2202416
5.0860332 88.0979614 0.2183414
5.1033594 88.2676697 0.2188369
5.1206856 88.5904846 0.2199518
5.1380118 88.9943008 0.2184197
5.1553379 89.2732773 0.2188867
5.1726641 89.1978683 0.2193428
5.1899903 89.1410599 0.2173670
5.2073165 89.2974548 0.2175523
5.2246427 89.5886078 0.2189268
5.2419689 89.7395554 0.2173652
5.2592951 89.9868011 0.2173946
5.2766213 90.2567825 0.2187344
5.2939474 90.3453674 0.2172533
5.3112736 90.4710159 0.2168099
5.3285998 90.6312408 0.2180453
5.3459260 90.8289490 0.2169335
5.3632522 90.8228149 0.2162026
5.3805784 90.9732361 0.2175428
5.3979046 91.2198486 0.2164370
5.4152307 91.6326752 0.2158590
5.4325569 91.7157288 0.2170032
5.4498831 91.5772629 0.2156678
5.4672093 91.7981873 0.2148452
5.4845355 92.0314255 0.2163236
5.5018617 92.2433319 0.2158912
5.5191879 92.3701935 0.2145023
5.5365141 92.5033646 0.2159380
5.5538402 92.6548767 0.2153589
5.5711664 92.9100037 0.2140869
5.5884926 92.9574203 0.2151066
5.6058188 93.0047684 0.2149835
5.6231450 93.2097473 0.2136570
5.6404712 93.4458466 0.2148311
5.6577974 93.6583405 0.2149633
5.6751236 93.8913956 0.2135274
5.6924497 94.0890656 0.2144294
5.7097759 94.2987366 0.2147276
5.7271021 94.4258041 0.2131363
5.7444283 94.4127960 0.2137170
5.7617545 94.6944275 0.2143167
5.7790807 95.0888748 0.2129624
5.7964069 95.4122849 0.2136534
5.8137330 95.6840973 0.2142381
5.8310592 95.8643036 0.2126026
5.8483854 96.0318069 0.2130820
5.8657116 96.1151352 0.2137599
5.8830378 96.3638992 0.2124119
5.9003640 96.8064270 0.2128274
5.9176902 97.1280441 0.2139187
5.9350164 97.1718292 0.2122574
5.9523425 97.1630630 0.2121194
5.9696687 97.0608215 0.2127391
5.9869949 97.2860031 0.2116478
6.0043211 97.6695404 0.2118360
6.0216473 97.9130096 0.2130116
6.0389735 98.2951813 0.2121643
6.0562997 98.9548950 0.2122250
6.0736258 99.4553223 0.2137326
6.0909520 99.7265701 0.2128587
6.1082782 99.9923782 0.2125084
6.1256044 100.1177063 0.2136483
6.1429306 100.3063507 0.2129860
6.1602568 100.7032700 0.2122550
6.1775830 100.9694672 0.2136719
6.1949092 100.8985672 0.2126452
6.2122353 101.0467072 0.2115290
6.2295615 101.2723618 0.2127270
6.2468877 101.4193726 0.2126026
6.2642139 101.6372910 0.2112810
6.2815401 101.9957962 0.2126378
6.2988663 102.3220901 0.2127002
6.3161925 102.8286896 0.2115921
6.3335187 103.2706375 0.2127491
6.3508448 103.7316208 0.2133170
6.3681710 104.3049164 0.2122954
6.3854972 104.8377533 0.2134265
6.4028234 105.2157822 0.2142258
6.4201496 105.6981430 0.2129440
6.4374758 106.9610672 0.2146306
6.4548020 108.4553452 0.2164592
6.4721281 109.6125107 0.2161352
6.4894543 109.8823090 0.2165625
6.5067805 109.2470245 0.2165691
6.5241067 108.2742157 0.2141312
6.5414329 107.5047760 0.2132100
6.5587591 107.2445145 0.2136062
6.5760853 107.3635712 0.2123389
6.5934115 107.5082092 0.2121152
6.6107376 107.7782593 0.2132269
6.6280638 108.1507797 0.2123769
6.6453900 108.4583435 0.2121125
6.6627162 108.6545486 0.2132093
6.6800424 109.0909424 0.2126328
6.6973686 109.6312256 0.2122715
6.7146948 109.9172363 0.2136513
6.7320210 109.9336777 0.2128996
6.7493471 110.0708771 0.2120503
6.7666733 110.4006577 0.2133523
6.7839995 110.7984772 0.2133227
6.8013257 111.0914001 0.2120703
6.8186519 111.5266647 0.2134891
6.8359781 111.8720474 0.2134791
6.8533043 112.2367172 0.2125272
6.8706304 112.7316818 0.2136400
6.8879566 113.3920364 0.2144680
6.9052828 113.6745529 0.2131618
6.9226090 113.8726578 0.2138446
6.9399352 114.0009232 0.2142605
6.9572614 114.1286850 0.2127499
6.9745876 114.4728317 0.2133929
6.9919138 115.0718384 0.2144468
7.0092399 115.7763443 0.2135324
7.0265661 116.4047394 0.2141672
7.0438923 116.8280716 0.2150255
7.0612185 117.1862259 0.2139636
7.0785447 117.3188705 0.2139038
7.0958709 117.5326233 0.2148975
7.1131971 117.8488846 0.2140266
7.1305232 118.1869202 0.2139256
7.1478494 118.5965271 0.2150703
7.1651756 119.1872787 0.2146937
7.1825018 119.4785767 0.2141549
7.1998280 119.6906815 0.2153112
7.2171542 119.7215042 0.2147283
7.2344804 119.8453751 0.2137148
7.2518066 120.3552322 0.2152786
7.2691327 120.9991455 0.2153703
7.2864589 121.5414276 0.2145205
7.3037851 121.8550415 0.2155959
7.3211113 122.1824341 0.2157975
7.3384375 122.5940552 0.2146707
7.3557637 122.8018646 0.2156286
7.3730899 122.9681168 0.2158399
7.3904161 123.4056702 0.2147396
7.4077422 123.8558578 0.2155004
7.4250684 124.2587204 0.2162282
7.4423946 124.6839066 0.2151380
7.4597208 125.0375061 0.2156046
7.4770470 125.3061066 0.2162945
7.4943732 125.6020432 0.2151142
7.5116994 126.0002289 0.2154393
7.5290255 126.3974533 0.2163951
7.5463517 126.8663483 0.2155674
7.5636779 127.4156494 0.2158635
7.5810041 127.7120285 0.2168887
7.5983303 128.1919403 0.2162967
7.6156565 128.6336670 0.2160988
7.6329827 128.8235931 0.2170869
7.6503089 128.9818115 0.2164475
7.6676350 129.3708954 0.2158487
7.6849612 129.8381958 0.2172743
7.7022874 130.1562500 0.2170273
7.7196136 130.3948364 0.2160773
7.7369398 130.7162476 0.2171338
7.7542660 131.1662903 0.2172323
7.7715922 131.7083435 0.2163981
7.7889184 131.8753967 0.2172162
7.8062445 132.0317383 0.2174061
7.8235707 132.4074097 0.2163261
7.8408969 132.9283142 0.2171366
7.8582231 133.4875641 0.2179587
7.8755493 133.7190247 0.2167234
7.8928755 133.8009644 0.2169151
7.9102017 134.0870209 0.2176789
7.9275278 134.5745697 0.2167456
7.9448540 134.9956818 0.2170035
7.9621802 135.3146667 0.2178877
7.9795064 135.5118103 0.2169883
7.9968326 135.3879395 0.2163241
8.0141588 135.4002533 0.2172934
8.0314850 135.8399963 0.2168557
8.0488112 136.1968079 0.2164065
8.0661373 136.5173950 0.2175165
8.0834635 136.8681183 0.2171928
8.1007897 137.4300079 0.2166412
8.1181159 137.8744965 0.2177618
8.1354421 138.1974792 0.2177998
8.1527683 138.5909271 0.2168720
8.1700945 138.9869232 0.2177812
8.1874206 139.3860626 0.2181482
8.2047468 139.7294922 0.2169698
8.2220730 139.9597168 0.2176597
8.2393992 140.1501160 0.2180742
8.2567254 140.4033813 0.2169530
8.2740516 140.6694336 0.2173299
8.2913778 140.9683075 0.2180652
8.3087040 141.2765808 0.2171503
8.3260301 141.5029297 0.2171151
8.3433563 141.8207550 0.2182038
8.3606825 142.1246185 0.2173360
8.3780087 142.5130768 0.2171596
8.3953349 142.8037567 0.2181995
8.4126611 143.0355530 0.2176734
8.4299873 143.2266083 0.2169758
8.4473135 143.2756042 0.2178026
8.4646396 143.4186096 0.2174642
8.4819658 143.7672119 0.2166324
8.4992920 144.4778290 0.2179295
8.5166182 145.0470123 0.2182432
8.5339444 145.4434052 0.2172683
8.5512706 145.7905731 0.2180330
8.5685968 146.1806946 0.2185159
8.5859229 146.2914734 0.2172955
8.6032491 146.1361389 0.2174626
8.6205753 146.3992767 0.2180952
8.6379015 146.8489838 0.2171937
8.6552277 147.2590790 0.2174457
8.6725539 147.6382751 0.2183947
8.6898801 148.1581268 0.2177248
8.7072063 148.5553589 0.2177185
8.7245324 148.5934448 0.2184954
8.7418586 148.5707245 0.2176958
8.7591848 148.7827759 0.2170380
8.7765110 149.0461426 0.2181028
8.7938372 149.3110352 0.2178567
8.8111634 149.6022491 0.2170282
8.8284896 149.8077087 0.2178910
8.8458158 150.3677063 0.2182030
8.8631419 150.8204651 0.2172435
8.8804681 151.1654510 0.2180202
8.8977943 151.5843964 0.2184847
8.9151205 151.8924103 0.2173862
8.9324467 152.1485596 0.2179141
8.9497729 152.2899933 0.2183285
8.9670991 152.4625244 0.2173669
8.9844252 152.7002411 0.2174653
9.0017514 152.7858582 0.2181304
9.0190776 153.1890869 0.2175039
9.0364038 153.8370819 0.2175046
9.0537300 154.2755432 0.2186231
9.0710562 154.3704071 0.2180582
9.0883824 154.6223602 0.2174436
9.1057086 155.2637482 0.2186719
9.1230347 156.0971680 0.2188841
9.1403609 157.2327728 0.2186289
9.1576871 158.0828857 0.2199166
9.1750133 158.2340851 0.2198945
9.1923395 157.9565887 0.2185679
9.2096657 157.3277283 0.2184208
9.2269919 157.0632782 0.2186160
9.2443180 156.8082428 0.2170844
9.2616442 157.1040649 0.2174812
9.2789704 157.5646667 0.2182879
9.2962966 157.6660156 0.2173142
9.3136228 157.8845367 0.2171740
9.3309490 158.0689850 0.2180128
9.3482752 158.1037750 0.2173028
9.3656014 158.5701447 0.2169679
9.3829275 159.1511230 0.2181093
9.4002537 159.3558960 0.2179172
9.4175799 159.1799622 0.2167499
9.4349061 159.2663727 0.2175556
9.4522323 159.4903412 0.2175286
9.4695585 159.9482727 0.2167578
9.4868847 160.1027222 0.2172771
9.5042109 160.2526703 0.2175916
9.5215370 160.3058777 0.2164487
9.5388632 160.4344635 0.2167140
9.5561894 160.6238403 0.2173087
9.5735156 160.9436646 0.2164733
9.5908418 161.2559052 0.2164958
9.6081680 161.4604797 0.2172702
9.6254942 161.8223724 0.2167454
9.6428203 162.2250061 0.2165558
9.6601465 162.2812347 0.2171735
9.6774727 162.5037384 0.2169759
9.6947989 162.8397980 0.2162708
9.7121251 163.0852509 0.2171373
9.7294513 163.0941772 0.2170041
9.7467775 163.1469116 0.2160159
9.7641037 163.4191742 0.2166178
9.7814298 163.6813507 0.2169807
9.7987560 163.9783173 0.2159849
9.8160822 164.5740204 0.2165442
9.8334084 165.0395355 0.2173922
9.8507346 165.1567230 0.2164247
9.8680608 165.1404266 0.2161801
9.8853870 165.2894592 0.2168429
9.9027131 165.6897125 0.2164045
9.9200393 166.2039795 0.2161411
9.9373655 166.5850677 0.2170886
9.9546917 166.8185120 0.2169048
9.9720179 166.9501343 0.2160096
9.9893441 167.3070679 0.2168243
10.0066703 167.6529999 0.2169661
10.0239965 167.8527832 0.2160826
10.0413226 168.0044861 0.2165520
10.0586488 168.3383636 0.2170535
10.0759750 168.6633148 0.2160720
10.0933012 168.9261627 0.2162728
10.1106274 169.3718262 0.2170237
10.1279536 170.0361786 0.2167944
10.1452798 170.7616272 0.2168042
10.1626060 171.5461578 0.2180104
10.1799321 172.7345123 0.2181284
10.1972583 175.5006714 0.2191365
10.2145845 180.1977386 0.2227007
10.2319107 185.8699493 0.2260956
10.2492369 189.5741272 0.2274747
10.2665631 189.3345795 0.2277453
10.2838893 185.3606262 0.2253669
10.3012154 180.5449982 0.2212576
10.3185416 176.8930817 0.2191921
10.3358678 174.8153229 0.2183605
10.3531940 173.8457336 0.2168581
10.3705202 173.5904236 0.2164431
10.3878464 173.7136383 0.2172657
10.4051726 173.5023804 0.2164821
10.4224988 173.2098846 0.2157601
10.4398249 173.1707306 0.2163907
10.4571511 173.2919464 0.2162040
10.4744773 173.2492676 0.2153161
10.4918035 173.2783966 0.2158737
10.5091297 173.3664856 0.2160309
10.5264559 173.5498199 0.2150930
10.5437821 173.6920471 0.2152979
10.5611083 173.6774292 0.2154795
10.5784344 173.7221069 0.2145957
10.5957606 173.6590271 0.2144394
10.6130868 173.3427124 0.2147913
10.6304130 173.1334686 0.2139924
10.6477392 173.1860809 0.2134127
10.6650654 173.2232971 0.2140242
10.6823916 173.1636963 0.2137339
10.6997177 173.2610168 0.2131417
10.7170439 173.3020630 0.2135552
10.7343701 173.2320099 0.2134160
10.7516963 173.2415314 0.2124216
10.7690225 173.4213867 0.2127459
10.7863487 173.6214447 0.2131742
10.8036749 173.8262787 0.2124563
10.8210011 174.0897064 0.2123809
10.8383272 174.5585785 0.2132025
10.8556534 174.5677185 0.2126742
10.8729796 174.3959656 0.2120412
10.8903058 174.1970673 0.2123664
10.9076320 174.0905762 0.2120096
10.9249582 174.4285278 0.2114245
10.9422844 174.8783722 0.2121286
10.9596105 175.0289917 0.2123145
10.9769367 175.0039978 0.2114326
10.9942629 175.0237885 0.2115272
11.0115891 175.2621155 0.2120688
11.0289153 175.4141998 0.2113312
11.0462415 175.5257263 0.2112825
11.0635677 175.5053101 0.2117609
11.0808939 175.6482086 0.2114004
11.0982200 175.9904480 0.2109973
11.1155462 176.3254700 0.2116343
11.1328724 176.3231354 0.2114868
11.1501986 176.2398224 0.2107223
11.1675248 176.2378082 0.2110274
11.1848510 176.3229980 0.2111558
11.2021772 176.5698395 0.2105538
11.2195034 176.7725067 0.2106716
11.2368295 177.0267334 0.2112748
11.2541557 177.0868530 0.2106428
11.2714819 177.0067139 0.2102021
11.2888081 176.8659363 0.2105724
11.3061343 176.7740936 0.2102428
11.3234605 176.8125153 0.2096641
11.3407867 177.0482788 0.2101386
11.3581128 177.2102203 0.2101400
11.3754390 177.3385315 0.2094528
11.3927652 177.3546906 0.2097103
11.4100914 177.4328156 0.2100259
11.4274176 177.8000488 0.2094921
11.4447438 177.8813171 0.2093432
11.4620700 178.0594940 0.2099373
11.4793962 178.2455444 0.2095577
11.4967223 178.6338654 0.2093236
11.5140485 179.0486603 0.2098552
11.5313747 179.1652222 0.2097129
