# 2theta(deg)    Intensity    Error
0.9797269 121.8035889 4.0297847
0.9970531 120.4956665 1.9861045
1.0143793 118.4598770 1.5471948
1.0317055 114.4495544 1.2982401
1.0490317 114.6841507 1.0523219
1.0663578 116.0947189 0.9276268
1.0836840 115.0956039 0.8233845
1.1010102 113.6213608 0.7654208
1.1183364 111.8711243 0.7276259
1.1356626 110.4742355 0.6847315
1.1529888 109.3109283 0.6574847
1.1703150 108.7702789 0.6482773
1.1876411 108.0604553 0.6230527
1.2049673 106.9414368 0.6033037
1.2222935 106.0008774 0.5933279
1.2396197 105.8067780 0.5747950
1.2569459 105.5239105 0.5575013
1.2742721 105.1423798 0.5492557
1.2915983 104.2296143 0.5268010
1.3089245 103.3881912 0.5080717
1.3262506 102.2691193 0.4998123
1.3435768 101.8152161 0.4875144
1.3609030 101.5034943 0.4829311
1.3782292 100.1995468 0.4831538
1.3955554 99.2639771 0.4713280
1.4128816 98.6955872 0.4663824
1.4302078 98.3540573 0.4696548
1.4475340 98.1432266 0.4608513
1.4648601 97.4302750 0.4547536
1.4821863 96.4763489 0.4565160
1.4995125 95.5620422 0.4467432
1.5168387 94.7924881 0.4407775
1.5341649 94.3958588 0.4440687
1.5514911 94.0637894 0.4356711
1.5688173 93.7188950 0.4302607
1.5861434 93.5551834 0.4332323
1.6034696 93.2428741 0.4255110
1.6207958 92.7422562 0.4188762
1.6381220 92.6197968 0.4219005
1.6554482 92.3459320 0.4144526
1.6727744 92.3819275 0.4096373
1.6901006 92.2287521 0.4128309
1.7074268 91.8600082 0.4068453
1.7247529 91.5208282 0.4014335
1.7420791 91.0689392 0.4032834
1.7594053 90.3598480 0.3965942
1.7767315 89.8377151 0.3903498
1.7940577 89.6824112 0.3935597
1.8113839 89.8527145 0.3896302
1.8287101 89.7483749 0.3847031
1.8460362 89.3066254 0.3870057
1.8633624 89.1635208 0.3830580
1.8806886 88.8146667 0.3770428
1.8980148 88.4407883 0.3799070
1.9153410 88.2813568 0.3752838
1.9326672 88.3856049 0.3708353
1.9499934 88.2638397 0.3734148
1.9673196 87.7664337 0.3679989
1.9846457 87.2580795 0.3618423
2.0019719 86.8167801 0.3639961
2.0192981 86.5438232 0.3600269
2.0366243 86.2512436 0.3544123
2.0539505 85.9553223 0.3566423
2.0712767 86.0851364 0.3541190
2.0886029 86.0794754 0.3489391
2.1059291 85.6969833 0.3512622
2.1232552 85.3534393 0.3482631
2.1405814 85.3258896 0.3438465
2.1579076 85.2727737 0.3467291
2.1752338 85.2695084 0.3445113
2.1925600 85.0923157 0.3387247
2.2098862 85.0120697 0.3416972
2.2272124 84.6423416 0.3390068
2.2445385 84.4340668 0.3329646
2.2618647 84.4624481 0.3355993
2.2791909 84.3835449 0.3336838
2.2965171 84.4336014 0.3286764
2.3138433 84.4110641 0.3307074
2.3311695 84.4711685 0.3298674
2.3484957 84.4181976 0.3246051
2.3658219 84.5054779 0.3267347
2.3831480 84.2372589 0.3251592
2.4004742 83.7693405 0.3190552
2.4178004 83.2229385 0.3197744
2.4351266 82.7934875 0.3189973
2.4524528 82.9304733 0.3141979
2.4697790 83.3820114 0.3172058
2.4871052 83.6744080 0.3174634
2.5044314 84.0095978 0.3134590
2.5217575 83.7772522 0.3144051
2.5390837 83.1385269 0.3129164
2.5564099 82.5808792 0.3068836
2.5737361 82.2419281 0.3077652
2.5910623 82.1598053 0.3077631
2.6083885 82.3898926 0.3035564
2.6257147 82.5812073 0.3047313
2.6430408 82.6340561 0.3050276
2.6603670 82.7136536 0.3001704
2.6776932 82.9641876 0.3017146
2.6950194 82.9212189 0.3017127
2.7123456 82.5347290 0.2964343
2.7296718 82.2588043 0.2969099
2.7469980 82.0929871 0.2970296
2.7643242 82.0623093 0.2926511
2.7816503 81.9218597 0.2930687
2.7989765 81.9402618 0.2938641
2.8163027 81.9307251 0.2900108
2.8336289 81.9063568 0.2899722
2.8509551 82.1201324 0.2912108
2.8682813 82.1446686 0.2873677
2.8856075 81.8327713 0.2870770
2.9029336 81.3828125 0.2872477
2.9202598 81.4500427 0.2833945
2.9375860 81.6632767 0.2837225
2.9549122 81.7085953 0.2846138
2.9722384 81.8276138 0.2808566
2.9895646 81.9167252 0.2807511
3.0068908 81.5173035 0.2810673
3.0242170 81.3424606 0.2774411
3.0415431 81.3065338 0.2769586
3.0588693 81.1643143 0.2779140
3.0761955 81.1005249 0.2742324
3.0935217 81.0583344 0.2738869
3.1108479 80.7899323 0.2745211
3.1281741 80.8268814 0.2715804
3.1455003 81.0059891 0.2713055
3.1628265 81.0547104 0.2729972
3.1801526 81.0274734 0.2700482
3.1974788 80.9297485 0.2689380
3.2148050 81.0200424 0.2706485
3.2321312 81.0931091 0.2678280
3.2494574 81.0140610 0.2666659
3.2667836 80.9050140 0.2678919
3.2841098 80.7359924 0.2644617
3.3014359 80.5953064 0.2632118
3.3187621 80.6851807 0.2650422
3.3360883 80.6298370 0.2621858
3.3534145 80.5033264 0.2606602
3.3707407 80.5031052 0.2620890
3.3880669 80.6780243 0.2598552
3.4053931 80.8347855 0.2587358
3.4227193 80.8970413 0.2603291
3.4400454 81.1346436 0.2587864
3.4573716 81.4680557 0.2579150
3.4746978 81.5801239 0.2600473
3.4920240 81.3955154 0.2576491
3.5093502 81.0117035 0.2551223
3.5266764 80.8360596 0.2564920
3.5440026 80.7872620 0.2546489
3.5613288 80.7321472 0.2527341
3.5786549 80.7313004 0.2544318
3.5959811 80.8541718 0.2530032
3.6133073 80.9640427 0.2511335
3.6306335 81.1686172 0.2530578
3.6479597 81.5001526 0.2520579
3.6652859 81.4472275 0.2494320
3.6826121 81.5992966 0.2515038
3.6999382 81.8259048 0.2504924
3.7172644 81.9650116 0.2482352
3.7345906 82.1625900 0.2501342
3.7519168 82.3146133 0.2496346
3.7692430 82.3611755 0.2472999
3.7865692 82.2519073 0.2486570
3.8038954 82.0853577 0.2476396
3.8212216 82.0074158 0.2449544
3.8385477 81.8584213 0.2461599
3.8558739 81.8536148 0.2456375
3.8732001 82.1445770 0.2435494
3.8905263 82.3749161 0.2453429
3.9078525 82.3366852 0.2450385
3.9251787 82.1750183 0.2419179
3.9425049 82.2120972 0.2430311
3.9598310 82.3130951 0.2427676
3.9771572 82.4283676 0.2401217
3.9944834 82.7013626 0.2416698
4.0118096 83.0167236 0.2420035
4.0291358 82.9768143 0.2394293
4.0464620 82.7800980 0.2399170
4.0637882 82.7169800 0.2400458
4.0811144 82.6631470 0.2370644
4.0984405 82.7717361 0.2379911
4.1157667 82.7917175 0.2384271
4.1330929 82.7257767 0.2358780
4.1504191 82.9158707 0.2367453
4.1677453 83.3180695 0.2380151
4.1850715 83.5251846 0.2357315
4.2023977 83.4230652 0.2359353
4.2197239 83.4142761 0.2366086
4.2370500 83.4887543 0.2342414
4.2543762 83.4086533 0.2341892
4.2717024 83.4221344 0.2351294
4.2890286 83.6874161 0.2331281
4.3063548 83.9533615 0.2334606
4.3236810 83.8234940 0.2340714
4.3410072 83.7458496 0.2315895
4.3583333 84.0332718 0.2316398
4.3756595 84.3515167 0.2330440
4.3929857 84.4546585 0.2308556
4.4103119 84.5184708 0.2304454
4.4276381 84.6067047 0.2318929
4.4449643 84.6085358 0.2299576
4.4622905 84.4956207 0.2291815
4.4796167 84.7254333 0.2307902
4.4969428 85.1487427 0.2293936
4.5142690 85.2797623 0.2287841
4.5315952 84.8907852 0.2295227
4.5489214 84.7570267 0.2277131
4.5662476 84.9878311 0.2270710
4.5835738 85.1424332 0.2288749
4.6009000 85.0647049 0.2272917
4.6182262 85.2393646 0.2261393
4.6355523 85.5880203 0.2280785
4.6528785 85.6813126 0.2267270
4.6702047 85.7137604 0.2251815
4.6875309 85.8714142 0.2269838
4.7048571 86.1251221 0.2261296
4.7221833 86.3390045 0.2247464
4.7395095 86.2125854 0.2258564
4.7568356 86.3102570 0.2252094
4.7741618 86.4298096 0.2231828
4.7914880 86.4545670 0.2247052
4.8088142 86.4250793 0.2241038
4.8261404 86.4601212 0.2222276
4.8434666 86.6441116 0.2238365
4.8607928 86.7145691 0.2235970
4.8781190 86.8696899 0.2216589
4.8954451 87.1120148 0.2229290
4.9127713 87.3676605 0.2233509
4.9300975 87.5466309 0.2211931
4.9474237 87.7560196 0.2224748
4.9647499 87.9153900 0.2227799
4.9820761 88.2725220 0.2212640
4.9994023 88.4196930 0.2220794
5.0167284 88.4015961 0.2223847
5.0340546 88.2376328 0.2198152
5.0513808 88.1465683 0.2202043
5.0687070 88.0972977 0.2203865
5.0860332 88.0973740 0.2183684
5.1033594 88.1759109 0.2186374
5.1206856 88.5860977 0.2198632
5.1380118 88.7320023 0.2181122
5.1553379 88.8454208 0.2182642
5.1726641 89.0387344 0.2191413
5.1899903 89.2839661 0.2175040
5.2073165 89.5843201 0.2178574
5.2246427 89.6538086 0.2189143
5.2419689 89.6465607 0.2172362
5.2592951 89.8057480 0.2172357
5.2766213 89.8144684 0.2180716
5.2939474 89.8511200 0.2167087
5.3112736 89.8358307 0.2159180
5.3285998 90.1264572 0.2174596
5.3459260 90.5340958 0.2164948
5.3632522 90.8739548 0.2163769
5.3805784 91.1072083 0.2177256
5.3979046 91.2417297 0.2164873
5.4152307 91.2617340 0.2154356
5.4325569 91.3385773 0.2166178
5.4498831 91.4844055 0.2155151
5.4672093 91.8191223 0.2148430
5.4845355 92.3993225 0.2167001
5.5018617 92.9767609 0.2166184
5.5191879 93.0283661 0.2153545
5.5365141 92.8447113 0.2163699
5.5538402 92.6204834 0.2152492
5.5711664 92.6771622 0.2137277
5.5884926 92.8956833 0.2150380
5.6058188 93.2349091 0.2152663
5.6231450 93.6982422 0.2140769
5.6404712 93.8022690 0.2152873
5.6577974 93.7541046 0.2150198
5.6751236 93.8452759 0.2134144
5.6924497 93.9719772 0.2143981
5.7097759 94.1268234 0.2145080
5.7271021 94.3527069 0.2131023
5.7444283 94.3097382 0.2136428
5.7617545 94.4290771 0.2139996
5.7790807 94.7421112 0.2125376
5.7964069 95.1472092 0.2133971
5.8137330 95.4537354 0.2139540
5.8310592 95.8347244 0.2125830
5.8483854 96.1327744 0.2131647
5.8657116 96.1392593 0.2137753
5.8830378 96.2913818 0.2122953
5.9003640 96.5674896 0.2125411
5.9176902 96.9443741 0.2136849
5.9350164 97.1201782 0.2122721
5.9523425 97.2756500 0.2121643
5.9696687 97.6257935 0.2134603
5.9869949 97.9584045 0.2123993
6.0043211 98.3411102 0.2125324
6.0216473 98.5866089 0.2138040
6.0389735 98.8547897 0.2127578
6.0562997 99.2057266 0.2124351
6.0736258 99.4992981 0.2136983
6.0909520 99.7232513 0.2128150
6.1082782 99.9582443 0.2124706
6.1256044 100.2219391 0.2137457
6.1429306 100.6479874 0.2134189
6.1602568 100.8530960 0.2124135
6.1775830 101.0940018 0.2137980
6.1949092 101.2014236 0.2130538
6.2122353 101.2544174 0.2116829
6.2295615 101.3725815 0.2127311
6.2468877 101.5814896 0.2127202
6.2642139 101.8826447 0.2114991
6.2815401 102.2268066 0.2128090
6.2988663 102.5321884 0.2129461
6.3161925 102.8315582 0.2115626
6.3335187 103.2747955 0.2127341
6.3508448 103.8013916 0.2134344
6.3681710 104.1433334 0.2121502
6.3854972 104.4423370 0.2130449
6.4028234 104.7744064 0.2136486
6.4201496 105.4036560 0.2126818
6.4374758 106.9399185 0.2145803
6.4548020 108.9447632 0.2170073
6.4721281 110.1964722 0.2166832
6.4894543 110.1619949 0.2168177
6.5067805 109.1754761 0.2164452
6.5241067 108.1686935 0.2138944
6.5414329 107.6208801 0.2133392
6.5587591 107.4787750 0.2138605
6.5760853 107.5614243 0.2125205
6.5934115 107.7114029 0.2122657
6.6107376 107.9908218 0.2134744
6.6280638 108.0886459 0.2123299
6.6453900 108.1829987 0.2118257
6.6627162 108.4624252 0.2130711
6.6800424 109.0120087 0.2126184
6.6973686 109.5442276 0.2121733
6.7146948 109.9149017 0.2136599
6.7320210 110.0693893 0.2130270
6.7493471 110.3213882 0.2122207
6.7666733 110.6105499 0.2135012
6.7839995 110.9600372 0.2134625
6.8013257 111.3992462 0.2124014
6.8186519 111.8538437 0.2137258
6.8359781 112.2777863 0.2140045
6.8533043 112.3533325 0.2125548
6.8706304 112.6770554 0.2136896
6.8879566 113.1675415 0.2141833
6.9052828 113.7738953 0.2132255
6.9226090 114.0324326 0.2139744
6.9399352 114.2200317 0.2143286
6.9572614 114.5351334 0.2131488
6.9745876 115.0934525 0.2140085
6.9919138 115.6193085 0.2149423
7.0092399 115.9560242 0.2138286
7.0265661 116.1968002 0.2139612
7.0438923 116.4573593 0.2147605
7.0612185 116.8593826 0.2137153
7.0785447 117.0578461 0.2137119
7.0958709 117.2269516 0.2147021
7.1131971 117.3992233 0.2136347
7.1305232 117.9612350 0.2137257
7.1478494 118.6474228 0.2152074
7.1651756 119.0836716 0.2146069
7.1825018 119.2663651 0.2139787
7.1998280 119.4550934 0.2151524
7.2171542 119.6631241 0.2146709
7.2344804 120.0130692 0.2139028
7.2518066 120.5008850 0.2154698
7.2691327 121.0071793 0.2154043
7.2864589 121.4556427 0.2144918
7.3037851 121.8260880 0.2156664
7.3211113 122.1214905 0.2156870
7.3384375 122.4135666 0.2145851
7.3557637 122.6865311 0.2155340
7.3730899 122.9248123 0.2157812
7.3904161 123.3692398 0.2147412
7.4077422 123.7868652 0.2154870
7.4250684 124.1778641 0.2161940
7.4423946 124.3251343 0.2148308
7.4597208 124.3995132 0.2150669
7.4770470 124.8278503 0.2159540
7.4943732 125.4256210 0.2150201
7.5116994 125.9860992 0.2155100
7.5290255 126.3154831 0.2163200
7.5463517 126.6116638 0.2154173
7.5636779 127.1595917 0.2155752
7.5810041 127.7643814 0.2169033
7.5983303 128.2861633 0.2164177
7.6156565 128.4504700 0.2158283
7.6329827 128.7388611 0.2169541
7.6503089 129.1760559 0.2166393
7.6676350 129.6417542 0.2160724
7.6849612 129.8899841 0.2172164
7.7022874 129.9820862 0.2168895
7.7196136 130.1003723 0.2157924
7.7369398 130.4440002 0.2167870
7.7542660 130.7491913 0.2169516
7.7715922 130.9543915 0.2157443
7.7889184 131.3281555 0.2167149
7.8062445 131.7367096 0.2172354
7.8235707 132.0679779 0.2160574
7.8408969 132.3528900 0.2166847
7.8582231 132.6982880 0.2173194
7.8755493 133.1440277 0.2161994
7.8928755 133.7334442 0.2169276
7.9102017 134.1509857 0.2176975
7.9275278 134.5371704 0.2167217
7.9448540 134.8305054 0.2168204
7.9621802 135.2868958 0.2178565
7.9795064 135.8521729 0.2172357
7.9968326 136.2618866 0.2170742
8.0141588 136.4360657 0.2181461
8.0314850 136.5527954 0.2173744
8.0488112 136.9385376 0.2170140
8.0661373 137.2893066 0.2180969
8.0834635 137.4484406 0.2177149
8.1007897 137.6890411 0.2168080
8.1181159 137.9606934 0.2178536
8.1354421 138.4494476 0.2180813
8.1527683 138.8293915 0.2170769
8.1700945 138.9720612 0.2177830
8.1874206 139.0552673 0.2178652
8.2047468 139.1658936 0.2166047
8.2220730 139.4861298 0.2172038
8.2393992 140.0505676 0.2180227
8.2567254 140.4763031 0.2170345
8.2740516 140.6795044 0.2173180
8.2913778 140.7654724 0.2178777
8.3087040 140.8469696 0.2167802
8.3260301 141.2240601 0.2169306
8.3433563 141.6547241 0.2179738
8.3606825 142.1588135 0.2173711
8.3780087 142.5354919 0.2171547
8.3953349 142.7906342 0.2181456
8.4126611 143.0301361 0.2176608
8.4299873 143.2279663 0.2169096
8.4473135 143.5930176 0.2180834
8.4646396 144.1624298 0.2181037
8.4819658 144.3571472 0.2170432
8.4992920 144.5676575 0.2180472
8.5166182 144.9671936 0.2182491
8.5339444 145.2389069 0.2171104
8.5512706 145.3927002 0.2177124
8.5685968 145.7607727 0.2181830
8.5859229 146.3787842 0.2173347
8.6032491 146.9232483 0.2181001
8.6205753 147.0083618 0.2185504
8.6379015 147.0422821 0.2173371
8.6552277 147.1492157 0.2173051
8.6725539 147.3853455 0.2181599
8.6898801 147.8730927 0.2175117
8.7072063 148.1489258 0.2173005
8.7245324 148.4649200 0.2183306
8.7418586 148.8723297 0.2179352
8.7591848 149.0894470 0.2173172
8.7765110 149.0518799 0.2180710
8.7938372 149.2425079 0.2177391
8.8111634 149.7573700 0.2172301
8.8284896 150.2118988 0.2182429
8.8458158 150.4344940 0.2182171
8.8631419 150.4048309 0.2170142
8.8804681 150.4111633 0.2174043
8.8977943 150.6976013 0.2178567
8.9151205 151.0733337 0.2168809
8.9324467 151.3903046 0.2173336
8.9497729 151.6612549 0.2179370
8.9670991 152.0746307 0.2170922
8.9844252 152.5852966 0.2173418
9.0017514 152.7406158 0.2181413
9.0190776 152.6497040 0.2171023
9.0364038 152.6716614 0.2166714
9.0537300 153.1292877 0.2177902
9.0710562 153.7683411 0.2176681
9.0883824 154.2167664 0.2171369
9.1057086 154.7036438 0.2182109
9.1230347 155.4699402 0.2184787
9.1403609 156.4452972 0.2180887
9.1576871 157.3292999 0.2193603
9.1750133 157.6745300 0.2195237
9.1923395 157.3914032 0.2181435
9.2096657 157.0112915 0.2182484
9.2269919 156.7840118 0.2183444
9.2443180 156.7237549 0.2171157
9.2616442 156.7824249 0.2171677
9.2789704 157.1450043 0.2180140
9.2962966 157.5006256 0.2172287
9.3136228 157.5767822 0.2169540
9.3309490 157.6651459 0.2178094
9.3482752 158.0283203 0.2172990
9.3656014 158.6537781 0.2170318
9.3829275 159.4200287 0.2183994
9.4002537 159.6354218 0.2180468
9.4175799 159.5475616 0.2171041
9.4349061 159.4808655 0.2176353
9.4522323 159.6187286 0.2176510
9.4695585 159.6891632 0.2165624
9.4868847 159.8773193 0.2171216
9.5042109 160.1287231 0.2174897
9.5215370 160.2396393 0.2163663
9.5388632 160.5439148 0.2167998
9.5561894 160.7944946 0.2173816
9.5735156 161.2255707 0.2166802
9.5908418 161.4881744 0.2166321
9.6081680 161.5373383 0.2173485
9.6254942 161.6616364 0.2166279
9.6428203 161.8672791 0.2162728
9.6601465 162.0624390 0.2171172
9.6774727 162.0638123 0.2166231
9.6947989 162.2019501 0.2157982
9.7121251 162.7239990 0.2169028
9.7294513 163.1887665 0.2170734
9.7467775 163.4444733 0.2162310
9.7641037 163.5758362 0.2167075
9.7814298 163.8590698 0.2170510
9.7987560 164.0717926 0.2160577
9.8160822 164.3493652 0.2163828
9.8334084 164.6971588 0.2170986
9.8507346 164.8756409 0.2162709
9.8680608 165.0390930 0.2160848
9.8853870 165.4798889 0.2169897
9.9027131 165.8073425 0.2164786
9.9200393 166.2574005 0.2161406
9.9373655 166.7272034 0.2171602
9.9546917 166.9139709 0.2169356
9.9720179 167.1273193 0.2161819
9.9893441 167.2398987 0.2167169
10.0066703 167.4755707 0.2168641
10.0239965 167.8358002 0.2160412
10.0413226 168.1701813 0.2166771
10.0586488 168.2735596 0.2169848
10.0759750 168.6882019 0.2161641
10.0933012 169.3824310 0.2165638
10.1106274 170.0188293 0.2175401
10.1279536 170.2621765 0.2168829
10.1452798 170.7035217 0.2167778
10.1626060 171.5809631 0.2180091
10.1799321 173.0596771 0.2183457
10.1972583 175.7051086 0.2192555
10.2145845 180.2398071 0.2226963
10.2319107 185.9470825 0.2261708
10.2492369 189.7243500 0.2275412
10.2665631 189.3635864 0.2277266
10.2838893 185.2057495 0.2252465
10.3012154 180.0688477 0.2209437
10.3185416 176.3556366 0.2188646
10.3358678 174.4082642 0.2181261
10.3531940 173.5601349 0.2166360
10.3705202 173.2861786 0.2162468
10.3878464 173.2145386 0.2169007
10.4051726 173.3782806 0.2163926
10.4224988 173.5582123 0.2159783
10.4398249 173.7628021 0.2167522
10.4571511 173.9290466 0.2166073
10.4744773 173.8630524 0.2157320
10.4918035 173.6448975 0.2160598
10.5091297 173.4815063 0.2161215
10.5264559 173.4420929 0.2150118
10.5437821 173.5522614 0.2151767
10.5611083 173.5111542 0.2153634
10.5784344 173.3810730 0.2144012
10.5957606 173.4396973 0.2142256
10.6130868 173.8276062 0.2150388
10.6304130 173.7897949 0.2144137
10.6477392 173.4942627 0.2135992
10.6650654 173.2612457 0.2140046
10.6823916 173.1815796 0.2137424
10.6997177 173.4004211 0.2132458
10.7170439 173.5291748 0.2136125
10.7343701 173.6650085 0.2136839
10.7516963 173.7462006 0.2127257
10.7690225 173.7972107 0.2129337
10.7863487 173.7734222 0.2132433
10.8036749 174.1199341 0.2126178
10.8210011 174.2241974 0.2125016
10.8383272 174.2185669 0.2128959
10.8556534 174.7798462 0.2127575
10.8729796 175.0134888 0.2124303
10.8903058 174.7419434 0.2126894
10.9076320 174.4640961 0.2122029
10.9249582 174.3995514 0.2113884
10.9422844 174.4812927 0.2118809
10.9596105 174.5367432 0.2120097
10.9769367 174.5966034 0.2111886
10.9942629 174.8300781 0.2114363
11.0115891 175.1425323 0.2119232
11.0289153 175.4367218 0.2113815
11.0462415 175.3962250 0.2111639
11.0635677 175.3887024 0.2117260
11.0808939 175.6941223 0.2114148
11.0982200 175.9279480 0.2109557
11.1155462 176.0099792 0.2114306
11.1328724 176.0882263 0.2113723
11.1501986 176.0421600 0.2106107
11.1675248 175.9938965 0.2108908
11.1848510 176.4205627 0.2112632
11.2021772 176.7475891 0.2105966
11.2195034 176.8544464 0.2108431
11.2368295 176.7863312 0.2111389
11.2541557 176.7324219 0.2104297
11.2714819 176.7355194 0.2100538
11.2888081 176.6277924 0.2104347
11.3061343 176.5326233 0.2100878
11.3234605 176.6884460 0.2096061
11.3407867 176.8147583 0.2099725
11.3581128 177.0376434 0.2100270
11.3754390 177.2924347 0.2094116
11.3927652 177.6122437 0.2098774
11.4100914 177.8504486 0.2102885
11.4274176 177.8396301 0.2095046
11.4447438 178.1097870 0.2095054
11.4620700 178.6635284 0.2102410
11.4793962 179.0948944 0.2101133
11.4967223 179.1618805 0.2096533
11.5140485 179.1684113 0.2099173
11.5313747 179.3890381 0.2098413
